File: xrd/vals.txt
2theta back_cor
35.0 178.972
35.1 213.158
35.2 285.943
35.3 290.769
35.4 296.424
35.5 192.429
35.6 190.068
35.7 109.791
35.8 70.7574
35.9 48.7171
36.0 43.2977
36.1 23.9291
36.2 35.7964
36.3 47.1877
36.4 61.4688
36.5 25.9118
36.6 31.2047
36.7 68.3525
36.8 43.4112
36.9 45.6818
37.0 42.9253
37.1 34.7496
37.2 35.0149
37.3 26.4661
37.4 9.37911
37.5 26.369
37.6 -4.91312
37.7 3.08561
37.8 10.9482
37.9 -17.2053
38.0 -5.45685
38.1 18.3814
38.2 9.56764
38.3 18.4557
38.4 27.5597
38.5 -5.25143
38.6 6.52733
38.7 3.15099
38.8 2.64953
38.9 -1.62403
39.0 -8.45369
39.1 33.5135
39.2 31.7737
39.3 67.8567
39.4 98.8756
39.5 79.5244
39.6 72.1881
39.7 78.6876
39.8 16.6421
39.9 23.5285
40.0 14.5727
40.1 3.23289
40.2 3.38894
40.3 0.192879
40.4 6.37371
40.5 66.7854
40.6 135.848
40.7 313.981
40.8 535.676
40.9 741.334
41.0 841.344
41.1 775.343
41.2 587.507
41.3 356.364
41.4 151.877
41.5 54.2478
41.6 -20.5437
41.7 -24.9622
41.8 -25.0659
41.9 -13.9347
42.0 25.3734
42.1 53.5534
42.2 102.013
42.3 78.5571
42.4 52.0968
42.5 36.5174
42.6 -2.94913
42.7 10.7832
42.8 6.55849
42.9 40.5846
43.0 2.82369
43.1 8.01662
43.2 40.0994
43.3 56.0782
43.4 88.4198
43.5 195.298
43.6 444.939
43.7 779.855
43.8 1100.54
43.9 1294.75
44.0 1213.52
44.1 919.825
44.2 553.259
44.3 243.734
44.4 124.51
44.5 47.8775
44.6 47.3888
44.7 37.9
44.8 40.4301
44.9 40.4051
45.0 19.21
45.1 40.1548
45.2 55.4605
45.3 51.4721
45.4 73.7275
45.5 87.5469
45.6 127.727
45.7 158.845
45.8 183.356
45.9 228.763
46.0 230.377
46.1 271.289
46.2 398.083
46.3 782.176
46.4 1521.11
46.5 2630.53
46.6 3694.14
46.7 4279.84
46.8 3834.11
46.9 2812.52
47.0 1702.29
47.1 865.969
47.2 401.37
47.3 245.496
47.4 162.623
47.5 136.472
47.6 120.895
47.7 98.0717
47.8 67.6066
47.9 68.9494
48.0 45.6501
48.1 45.1407
48.2 44.6061
48.3 34.6475
48.4 54.4827
48.5 45.5359
48.6 27.5229
48.7 32.6478
48.8 30.6497
48.9 23.4264
49.0 48.983
49.1 37.7825
49.2 44.1859
49.3 41.6152
49.4 41.6773
49.5 30.4544
49.6 41.6084
49.7 46.4532
49.8 54.099
49.9 63.5876
50.0 67.6202
50.1 81.9546
50.2 72.1499
50.3 51.1901
50.4 40.7092
50.5 53.2812
50.6 27.3611
50.7 35.7809
50.8 54.6016
50.9 53.8901
51.0 44.7316
51.1 42.152
51.2 29.5252
51.3 29.4474
51.4 46.5844
51.5 47.1283
51.6 74.7891
51.7 95.2228
51.8 101.863
51.9 68.9929
52.0 50.3633
52.1 23.3926
52.2 27.9258
52.3 14.5969
52.4 36.3308
52.5 35.0977
52.6 15.9424
52.7 17.2121
52.8 7.25759
52.9 -5.57299
53.0 11.0403
53.1 6.95854
53.2 4.91064
53.3 2.28864
53.4 -7.49647
53.5 -13.4017
53.6 2.13298
53.7 -12.9985
53.8 -7.42099
53.9 5.91436
54.0 2.0406
54.1 12.1857
54.2 21.6808
54.3 38.9977
54.4 31.8895
54.5 15.7092
54.6 33.5928
54.7 23.1433
54.8 32.3867
54.9 54.093
55.0 73.1812
55.1 73.5132
55.2 84.1622
55.3 81.707
55.4 71.4798
55.5 72.8424
55.6 65.9339
55.7 40.8114
55.8 24.4277
55.9 53.0719
56.0 54.117
56.1 88.707
56.2 86.3678
56.3 69.3936
56.4 35.9323
56.5 33.5229
56.6 26.6213
56.7 16.3617
56.8 15.6599
56.9 12.568
57.0 41.5391
57.1 59.185
57.2 70.8538
57.3 48.3955
57.4 58.6251
57.5 21.3806
57.6 7.94598
57.7 8.99125
57.8 5.97442
57.9 3.59248
58.0 5.18244
58.1 12.2273
58.2 -3.99097
58.3 -8.67534
58.4 1.39218
58.5 -12.2904
58.6 -18.8831
58.7 -24.7779
58.8 -15.7178
58.9 -3.7278
59.0 8.24108
59.1 -1.85214
59.2 5.71152
59.3 3.98508
59.4 -8.94846
59.5 -7.34612
59.6 -16.0599
59.7 -17.9187
59.8 -16.0047
59.9 -9.01281
60.0 5.471
60.1 19.8317
60.2 26.1863
60.3 28.4358
60.4 36.1182
60.5 27.6814
60.6 15.0136
60.7 3.21166
60.8 13.7426
60.9 31.2205
61.0 67.7702
61.1 137.761
61.2 269.004
61.3 403.4
61.4 506.115
61.5 514.047
61.6 412.643
61.7 269.128
61.8 146.288
61.9 52.413
62.0 6.24866