File: xrd/vals.xy
2theta back_cor
35.0 203.668
35.1 237.819
35.2 310.569
35.3 315.359
35.4 320.979
35.5 216.949
35.6 214.553
35.7 134.24
35.8 95.1711
35.9 73.095
36.0 67.6396
36.1 48.2349
36.2 60.066
36.3 71.4209
36.4 85.6655
36.5 50.0719
36.6 55.3281
36.7 92.439
36.8 67.4607
36.9 69.6942
37.0 66.9004
37.1 58.6874
37.2 58.9151
37.3 50.3286
37.4 33.2039
37.5 50.1559
37.6 18.8357
37.7 26.7962
37.8 34.6205
37.9 6.42862
38.0 18.1385
38.1 41.9381
38.2 33.0854
38.3 41.9346
38.4 50.9994
38.5 18.1491
38.6 29.8885
38.7 26.4727
38.8 25.9316
38.9 21.6183
39.0 14.7488
39.1 56.676
39.2 54.896
39.3 90.9387
39.4 121.917
39.5 102.526
39.6 95.1486
39.7 101.607
39.8 39.5209
39.9 46.3663
40.0 37.3693
40.1 25.9882
40.2 26.1028
40.3 22.8652
40.4 29.0043
40.5 89.3742
40.6 158.395
40.7 336.485
40.8 558.139
40.9 763.754
41.0 863.722
41.1 797.678
41.2 609.799
41.3 378.614
41.4 174.084
41.5 76.4112
41.6 1.57645
41.7 -2.8855
41.8 -3.03269
41.9 8.05489
42.0 47.3192
42.1 75.4553
42.2 123.871
42.3 100.371
42.4 73.8662
42.5 58.2423
42.6 18.7313
42.7 32.4189
42.8 28.1494
42.9 62.1306
43.0 24.3245
43.1 29.4723
43.2 61.5097
43.3 77.443
43.4 109.739
43.5 216.572
43.6 466.166
43.7 801.037
43.8 1121.68
43.9 1315.84
44.0 1234.56
44.1 940.821
44.2 574.209
44.3 264.637
44.4 145.366
44.5 68.6865
44.6 68.1506
44.7 58.6145
44.8 61.0972
44.9 61.0247
45.0 39.7819
45.1 60.6789
45.2 75.9366
45.3 71.9001
45.4 94.1074
45.5 107.878
45.6 148.01
45.7 179.08
45.8 203.542
45.9 248.9
46.0 250.465
46.1 291.328
46.2 418.073
46.3 802.116
46.4 1541
46.5 2650.38
46.6 3713.93
46.7 4299.58
46.8 3853.81
46.9 2832.16
47.0 1721.88
47.1 885.509
47.2 420.859
47.3 264.935
47.4 182.012
47.5 155.809
47.6 140.181
47.7 117.307
47.8 86.7904
47.9 88.0817
48.0 64.7308
48.1 64.1696
48.2 63.5832
48.3 53.5726
48.4 73.3558
48.5 64.3566
48.6 46.2913
48.7 51.3637
48.8 49.3129
48.9 42.0369
49.0 67.5406
49.1 56.287
49.2 62.6373
49.3 60.0133
49.4 60.022
49.5 48.7456
49.6 59.8458
49.7 64.6369
49.8 72.2287
49.9 81.6633
50.0 85.6416
50.1 99.9217
50.2 90.0626
50.3 69.0482
50.4 58.5126
50.5 71.0297
50.6 45.0546
50.7 53.4193
50.8 72.1847
50.9 71.4179
51.0 62.2039
51.1 59.5686
51.2 46.8861
51.3 46.7524
51.4 63.8334
51.5 64.3211
51.6 91.9257
51.7 112.303
51.8 118.887
51.9 85.9598
52.0 67.2734
52.1 40.2458
52.2 44.7219
52.3 31.3358
52.4 53.0124
52.5 51.7218
52.6 32.509
52.7 33.7209
52.8 23.7086
52.9 10.82
53.0 27.3752
53.1 23.2352
53.2 21.1289
53.3 18.4484
53.4 8.60468
53.5 2.6407
53.6 18.1165
53.7 2.92603
53.8 8.44434
53.9 21.7204
54.0 17.7872
54.1 27.8728
54.2 37.3082
54.3 54.5653
54.4 47.3972
54.5 31.1568
54.6 48.9803
54.7 38.4704
54.8 47.6534
54.9 69.2991
55.0 88.3265
55.1 88.5977
55.2 99.1857
55.3 96.6695
55.4 86.381
55.5 87.6822
55.6 80.7123
55.7 55.5281
55.8 39.0826
55.9 67.665
56.0 68.648
56.1 103.176
56.2 100.774
56.3 83.7379
56.4 50.214
56.5 47.7419
56.6 40.7776
56.7 30.455
56.8 29.6902
56.9 26.5351
57.0 55.4428
57.1 73.0253
57.2 84.6305
57.3 62.1085
57.4 72.2743
57.5 34.9658
57.6 21.4671
57.7 22.4481
57.8 19.3669
57.9 16.9205
58.0 18.4458
58.1 25.4259
58.2 9.14278
58.3 4.3934
58.4 14.3958
58.5 0.647927
58.6 -6.01017
58.7 -11.9705
58.8 -2.97606
58.9 8.94813
59.0 20.8511
59.1 10.6918
59.2 18.1893
59.3 16.3965
59.4 3.39654
59.5 4.93231
59.6 -3.84815
59.7 -5.77386
59.8 -3.9268
59.9 2.99802
60.0 17.4146
60.1 31.7079
60.2 37.9951
60.3 40.1769
60.4 47.7916
60.5 39.2869
60.6 26.5511
60.7 14.681
60.8 25.1437
60.9 42.5532
61.0 79.0344
61.1 148.956
61.2 280.131
61.3 414.458
61.4 517.104
61.5 524.967
61.6 423.494
61.7 279.909
61.8 156.999
61.9 63.0545
62.0 16.8204